Wavelength (um) / Normalised Response

0.525000 0.00005
0.525500 0.00029
0.526000 0.00032
0.526500 0.00035
0.527000 0.00038
0.527500 0.00031
0.528000 0.00034
0.528500 0.00031
0.529000 0.00031
0.529500 0.00031
0.530000 0.00027
0.530500 0.00001
0.531000 0.00001
0.531500 0.00014
0.532000 0.00013
0.532500 0.00023
0.533000 0.00031
0.533500 0.00040
0.534000 0.00060
0.534500 0.00087
0.535000 0.00115
0.535500 0.00156
0.536000 0.00208
0.536500 0.00282
0.537000 0.00390
0.537500 0.00553
0.538000 0.00748
0.538500 0.01095
0.539000 0.01612
0.539500 0.02290
0.540000 0.03563
0.540500 0.05632
0.541000 0.08317
0.541500 0.13346
0.542000 0.20556
0.542500 0.28798
0.543000 0.40223
0.543500 0.51883
0.544000 0.59731
0.544500 0.67131
0.545000 0.71680
0.545500 0.75143
0.546000 0.78518
0.546500 0.82516
0.547000 0.85011
0.547500 0.87792
0.548000 0.87401
0.548500 0.84562
0.549000 0.76329
0.549500 0.68256
0.550000 0.65863
0.550500 0.69862
0.551000 0.74144
0.551500 0.76853
0.552000 0.78243
0.552500 0.79806
0.553000 0.80722
0.553500 0.82982
0.554000 0.84915
0.554500 0.87230
0.555000 0.89286
0.555500 0.91572
0.556000 0.92435
0.556500 0.93860
0.557000 0.94248
0.557500 0.95070
0.558000 0.95546
0.558500 0.96931
0.559000 0.97463
0.559500 0.99031
0.560000 0.99529
0.560500 1.00000
0.561000 0.98859
0.561500 0.96963
0.562000 0.93398
0.562500 0.88519
0.563000 0.81716
0.563500 0.75518
0.564000 0.66576
0.564500 0.57066
0.565000 0.48041
0.565500 0.37086
0.566000 0.26640
0.566500 0.19155
0.567000 0.12239
0.567500 0.07704
0.568000 0.05166
0.568500 0.03259
0.569000 0.02085
0.569500 0.01459
0.570000 0.00945
0.570500 0.00626
0.571000 0.00417
0.571500 0.00246
0.572000 0.00134
0.572500 0.00090
0.573000 0.00077
0.573500 0.00069
0.574000 0.00063
0.574500 0.00049
0.575000 0.00041
0.575500 0.00038
0.576000 0.00030
0.576500 0.00025
0.577000 0.00021
0.577500 0.00015
0.578000 0.00013
0.578500 0.00011
0.579000 0.00013
0.579500 0.00011
0.580000 0.00007
0.580500 0.00006
0.581000 0.00004
0.581500 0.00011
0.582000 0.00001
0.582500 0.00001
0.583000 0.00004
0.583500 0.00001
0.584000 0.00004
0.584500 0.00001
0.585000 0.00002
0.629000 0.00000
0.629500 0.00007
0.630000 0.00009
0.630500 0.00009
0.631000 0.00007
0.631500 0.00009
0.632000 0.00009
0.632500 0.00007
0.633000 0.00009
0.633500 0.00009
0.634000 0.00007
0.634500 0.00002
0.635000 0.00000
0.635500 0.00000
0.636000 0.00003
0.636500 0.00005
0.637000 0.00007
0.637500 0.00014
0.638000 0.00023
0.638500 0.00032
0.639000 0.00050
0.639500 0.00075
0.640000 0.00099
0.640500 0.00126
0.641000 0.00163
0.641500 0.00203
0.642000 0.00265
0.642500 0.00355
0.643000 0.00468
0.643500 0.00675
0.644000 0.01017
0.644500 0.01514
0.645000 0.02640
0.645500 0.05023
0.646000 0.09239
0.646500 0.20568
0.647000 0.42368
0.647500 0.66553
0.648000 0.86821
0.648500 0.89984
0.649000 0.87197
0.649500 0.86989
0.650000 0.90168
0.650500 0.94077
0.651000 0.97187
0.651500 0.97826
0.652000 0.96318
0.652500 0.94523
0.653000 0.93415
0.653500 0.93986
0.654000 0.95682
0.654500 0.98174
0.655000 0.99508
0.655500 1.00000
0.656000 0.98479
0.835000 0.00016
0.835500 0.00009
0.836000 0.00012
0.836500 0.00016
0.837000 0.00021
0.837500 0.00025
0.838000 0.00030
0.838500 0.00036
0.839000 0.00045
0.839500 0.00056
0.840000 0.00067
0.840500 0.00090
0.841000 0.00107
0.841500 0.00129
0.842000 0.00158
0.842500 0.00189
0.843000 0.00233
0.843500 0.00288
0.844000 0.00351
0.844500 0.00437
0.845000 0.00548
0.845500 0.00670
0.846000 0.00861
0.846500 0.01117
0.847000 0.01393
0.847500 0.01834
0.848000 0.02418
0.848500 0.03094
0.849000 0.04180
0.849500 0.05680
0.850000 0.07392
0.850500 0.10232
0.851000 0.14146
0.851500 0.18700
0.852000 0.26077
0.852500 0.35842
0.853000 0.45688
0.853500 0.58996
0.854000 0.71890
0.854500 0.81722
0.855000 0.90690
0.855500 0.96475
0.856000 0.98816
0.856500 1.00000
0.857000 0.99660
0.857500 0.99133
0.858000 0.97975
0.858500 0.97107
0.859000 0.96126
0.859500 0.95434
0.860000 0.94577
0.860500 0.94158
0.861000 0.93505
0.861500 0.93183
0.862000 0.92689
0.862500 0.92463
0.863000 0.91983
0.863500 0.91850
0.864000 0.91350
0.864500 0.91176
0.865000 0.90526
0.865500 0.90078
0.866000 0.89163
0.866500 0.88361
0.867000 0.87089
0.867500 0.85779
0.868000 0.84362
0.868500 0.82944
0.869000 0.81246
0.869500 0.80246
0.870000 0.78938
0.870500 0.78275
0.871000 0.77654
0.871500 0.77696
0.872000 0.77592
0.872500 0.77842
0.873000 0.77292
0.873500 0.75680
0.874000 0.72530
0.874500 0.66230
0.875000 0.57362
0.875500 0.48721
0.876000 0.37919
0.876500 0.28490
0.877000 0.21813
0.877500 0.15699
0.878000 0.11311
0.878500 0.08589
0.879000 0.06205
0.879500 0.04569
0.880000 0.03542
0.880500 0.02648
0.881000 0.02010
0.881500 0.01602
0.882000 0.01229
0.882500 0.00957
0.883000 0.00777
0.883500 0.00619
0.884000 0.00497
0.884500 0.00416
0.885000 0.00337
0.885500 0.00277
0.886000 0.00235
0.886500 0.00196
0.887000 0.00165
0.887500 0.00140
0.888000 0.00118
0.888500 0.00099
0.889000 0.00088
0.889500 0.00074
0.890000 0.00065
0.890500 0.00056
0.891000 0.00051
0.891500 0.00042
0.892000 0.00038
0.892500 0.00033
0.893000 0.00030
0.893500 0.00028
0.894000 0.00023
0.894500 0.00021
0.895000 0.00017
1.385100 0.00000
1.386655 0.00000
1.388211 -0.00010
1.389766 0.00010
1.391321 0.00000
1.392877 0.00000
1.394432 -0.00009
1.395987 0.00009
1.397543 0.00000
1.399098 0.00000
1.400653 0.00000
1.402209 0.00009
1.403764 0.00008
1.405319 -0.00008
1.406875 0.00008
1.408430 -0.00008
1.409985 0.00000
1.411541 0.00008
1.413096 0.00000
1.414651 0.00007
1.416206 -0.00006
1.417762 -0.00007
1.419317 0.00007
1.420872 0.00007
1.422428 0.00007
1.423983 0.00014
1.425538 0.00000
1.427094 -0.00001
1.428649 0.00007
1.430204 0.00007
1.431760 0.00013
1.433315 0.00013
1.434870 0.00006
1.436426 0.00012
1.437981 0.00032
1.439536 0.00013
1.441092 0.00012
1.442647 0.00012
1.444202 0.00012
1.445758 0.00005
1.447313 0.00029
1.448868 0.00030
1.450424 0.00012
1.451979 0.00028
1.453534 0.00031
1.455090 0.00012
1.456645 0.00027
1.458200 0.00029
1.459756 0.00028
1.461311 0.00046
1.462866 0.00028
1.464422 0.00046
1.465977 0.00012
1.467532 0.00041
1.469087 0.00059
1.470643 0.00079
1.472198 0.00047
1.473753 0.00059
1.475309 0.00062
1.476864 0.00060
1.478419 0.00076
1.479975 0.00078
1.481530 0.00076
1.483085 0.00080
1.484641 0.00075
1.486196 0.00073
1.487751 0.00087
1.489307 0.00095
1.490862 0.00094
1.492417 0.00113
1.493973 0.00116
1.495528 0.00114
1.497083 0.00114
1.498639 0.00120
1.500194 0.00151
1.501749 0.00172
1.503305 0.00184
1.504860 0.00194
1.506415 0.00205
1.507971 0.00252
1.509526 0.00265
1.511081 0.00258
1.512637 0.00299
1.514192 0.00330
1.515747 0.00372
1.517303 0.00387
1.518858 0.00388
1.520413 0.00460
1.521968 0.00520
1.523524 0.00592
1.525079 0.00670
1.526634 0.00733
1.528190 0.00827
1.529745 0.00942
1.531300 0.01062
1.532856 0.01206
1.534411 0.01394
1.535966 0.01579
1.537522 0.01823
1.539077 0.02095
1.540632 0.02445
1.542188 0.02878
1.543743 0.03345
1.545298 0.03918
1.546854 0.04571
1.548409 0.05336
1.549964 0.06274
1.551520 0.07206
1.553075 0.08293
1.554630 0.09451
1.556186 0.10956
1.557741 0.12578
1.559296 0.14609
1.560852 0.16720
1.562407 0.18956
1.563962 0.21506
1.565518 0.24403
1.567073 0.27768
1.568628 0.31707
1.570184 0.35398
1.571739 0.40135
1.573294 0.44837
1.574849 0.50454
1.576405 0.56052
1.577960 0.62060
1.579515 0.66956
1.581071 0.76486
1.582626 0.80717
1.584181 0.86262
1.585737 0.90923
1.587292 0.93489
1.588847 0.96278
1.590403 0.98417
1.591958 1.00038
1.593513 0.99489
1.595069 0.99416
1.596624 0.97623
1.598179 0.97045
1.599735 0.95848
1.601290 0.93731
1.602845 0.91777
1.604401 0.90254
1.605956 0.88354
1.607511 0.87317
1.609067 0.86440
1.610622 0.84973
1.612177 0.83827
1.613733 0.81431
1.615288 0.80445
1.616843 0.78288
1.618399 0.77682
1.619954 0.76536
1.621509 0.75125
1.623065 0.74400
1.624620 0.72927
1.626175 0.71804
1.627730 0.70467
1.629286 0.68463
1.630841 0.66609
1.632396 0.65362
1.633952 0.63655
1.635507 0.61842
1.637062 0.59012
1.638618 0.56053
1.640173 0.52987
1.641728 0.49754
1.643284 0.46079
1.644839 0.42778
1.646394 0.39594
1.647950 0.36112
1.649505 0.33132
1.651060 0.30068
1.652616 0.27323
1.654171 0.24574
1.655726 0.22404
1.657282 0.20170
1.658837 0.17969
1.660392 0.16170
1.661948 0.14268
1.663503 0.12884
1.665058 0.11408
1.666614 0.10226
1.668169 0.09141
1.669724 0.08081
1.671280 0.07208
1.672835 0.06359
1.674390 0.05652
1.675946 0.05089
1.677501 0.04497
1.679056 0.04038
1.680611 0.03588
1.682167 0.03245
1.683722 0.02887
1.685277 0.02597
1.686833 0.02318
1.688388 0.02104
1.689943 0.01900
1.691499 0.01703
1.693054 0.01527
1.694609 0.01380
1.696165 0.01254
1.697720 0.01139
1.699275 0.01015
1.700831 0.00947
1.702386 0.00869
1.703941 0.00815
1.705497 0.00730
1.707052 0.00680
1.708607 0.00603
1.710163 0.00588
1.711718 0.00551
1.713273 0.00466
1.714829 0.00450
1.716384 0.00446
1.717939 0.00411
1.719495 0.00351
1.721050 0.00325
1.722605 0.00307
1.724161 0.00307
1.725716 0.00255
1.727271 0.00239
1.728827 0.00220
1.730382 0.00185
1.731937 0.00198
1.733492 0.00186
1.735048 0.00150
1.736603 0.00138
1.738158 0.00139
1.739714 0.00141
1.741269 0.00135
1.742824 0.00128
1.744380 0.00115
1.745935 0.00122
1.747490 0.00116
1.749046 0.00116
1.750601 0.00116
1.752156 0.00103
1.753712 0.00101
1.755267 0.00097
1.756822 0.00103
1.758378 0.00097
1.759933 0.00091
1.761488 0.00090
1.763044 0.00091
1.764599 0.00091
1.766154 0.00091
1.767710 0.00072
1.769265 0.00093
1.770820 0.00033
1.772376 0.00072
1.773931 0.00073
1.775486 0.00073
1.777042 0.00013
1.778597 0.00074
2.967100 0.00000
2.973350 0.00000
2.979600 0.00000
2.985850 0.00000
2.992100 0.00000
2.998349 0.00000
3.004599 0.00000
3.010849 0.00000
3.017099 0.00000
3.023349 0.00000
3.029599 0.00000
3.035849 0.00000
3.042099 0.00000
3.048349 0.00000
3.054599 0.00000
3.060848 0.00000
3.067098 0.00000
3.073348 0.00100
3.079598 0.00000
3.08584 -0.00001
3.092098 0.00100
3.098348 0.00100
3.104598 0.00100
3.110848 0.00100
3.117098 0.00100
3.123348 0.00100
3.129597 0.00100
3.135847 0.00100
3.142097 0.00100
3.148347 0.00000
3.154597 0.00100
3.160847 0.00100
3.167097 0.00100
3.173347 0.00100
3.179597 0.00100
3.185847 0.00099
3.192096 0.00200
3.198346 0.00200
3.204596 0.00200
3.210846 0.00200
3.217096 0.00200
3.223346 0.00200
3.229596 0.00200
3.235846 0.00299
3.242096 0.00300
3.248346 0.00300
3.254596 0.00300
3.260845 0.00400
3.267095 0.00400
3.273345 0.00499
3.279595 0.00500
3.285845 0.00499
3.292095 0.00600
3.298345 0.00600
3.304595 0.00700
3.310845 0.00799
3.317095 0.00900
3.323344 0.00999
3.329594 0.01100
3.335844 0.01397
3.342094 0.01600
3.348344 0.01797
3.354594 0.02200
3.360844 0.02497
3.367094 0.02899
3.373344 0.03495
3.379594 0.03999
3.385844 0.04792
3.392093 0.05699
3.398343 0.06689
3.404593 0.08098
3.410843 0.09685
3.417093 0.11498
3.423343 0.13679
3.429593 0.16197
3.435843 0.19272
3.442093 0.22296
3.448343 0.25766
3.454592 0.29595
3.460842 0.33560
3.467092 0.38294
3.473342 0.43649
3.479592 0.49093
3.485842 0.54250
3.492092 0.59893
3.498342 0.65444
3.504592 0.71692
3.510842 0.77248
3.517092 0.82893
3.523341 0.87858
3.529591 0.91994
3.535841 0.95574
3.542091 0.97597
3.548341 0.99387
3.554591 1.00000
3.560841 0.99608
3.567091 0.98502
3.573341 0.97016
3.579591 0.94904
3.585840 0.91828
3.592090 0.89005
3.598340 0.85924
3.604590 0.84103
3.610840 0.82119
3.617090 0.80502
3.623340 0.79605
3.629590 0.79300
3.635840 0.79104
3.642090 0.78601
3.648340 0.78599
3.654589 0.78700
3.660839 0.78800
3.667089 0.78899
3.673339 0.79597
3.679589 0.79500
3.685839 0.79703
3.692089 0.78702
3.698339 0.77706
3.704589 0.77401
3.710839 0.76906
3.717088 0.76201
3.723338 0.75309
3.729588 0.74501
3.735838 0.74496
3.742088 0.75099
3.748338 0.75501
3.754588 0.74902
3.760838 0.73911
3.767088 0.72702
3.773338 0.71903
3.779588 0.72000
3.785837 0.71998
3.792087 0.72399
3.798337 0.72698
3.804587 0.72800
3.810837 0.72901
3.817087 0.72402
3.823337 0.71309
3.829587 0.70801
3.835837 0.70207
3.842087 0.69402
3.848336 0.68212
3.854586 0.67102
3.860836 0.65816
3.867086 0.64005
3.873336 0.61724
3.879586 0.59306
3.885836 0.56530
3.892086 0.53507
3.898336 0.50236
3.904586 0.46509
3.910836 0.42346
3.917085 0.37611
3.923335 0.32948
3.929585 0.28410
3.935835 0.24143
3.942085 0.20209
3.948335 0.16833
3.954585 0.13906
3.960835 0.11522
3.967085 0.09604
3.973335 0.08015
3.979584 0.06803
3.985834 0.05810
3.992084 0.05002
3.998334 0.04406
4.004584 0.03801
4.010834 0.03404
4.017084 0.03101
4.023334 0.02902
4.029584 0.02700
4.035834 0.02601
4.042084 0.02500
4.048334 0.02401
4.054584 0.02300
4.060833 0.02200
4.067083 0.02200
4.073333 0.02101
4.079583 0.02100
4.085833 0.02001
4.092083 0.02000
4.098333 0.01902
4.104583 0.01800
4.110833 0.01801
4.117083 0.01601
4.123333 0.01501
4.129582 0.01400
4.135832 0.01202
4.142082 0.01100
4.148332 0.00902
4.154582 0.00800
4.160832 0.00701
4.167082 0.00600
4.173332 0.00501
4.179582 0.00400
4.185832 0.00400
4.192081 0.00300
4.198331 0.00200
4.204581 0.00200
4.210831 0.00101
4.217081 0.00100
4.223331 0.00101
4.229581 0.00000
4.235831 0.00000
4.242081 0.00000
4.248331 0.00000
4.254580 0.00000
4.260830 0.00000
4.267080 0.00000
4.273330 0.00000
4.279580 0.00000
4.285830 0.00000
4.292080 0.00000
4.298330 0.00100
4.304580 0.00000
4.310830 0.00099
4.317080 0.00100
4.323329 0.00100
4.329579 0.00100
4.335829 0.00100
4.342079 0.00100
4.348329 0.00100
4.354579 0.00100
4.360829 0.00101
4.367079 0.00000
4.373329 0.00000
4.379579 0.00000
4.385828 0.00000
4.392078 0.00000
4.398328 0.00000
4.404578 0.00000
4.410828 0.00000
4.417078 0.00000
4.423328 0.00000
4.429578 0.00000
4.435828 0.00000
4.442078 0.00000
4.448328 0.00000
4.454577 0.00000
4.460827 0.00000
4.467077 0.00000
4.473327 0.00000
4.479577 0.00000
4.485827 0.00000
4.492077 0.00000
4.498327 0.00000
4.504577 0.00000
4.510827 0.00000
4.517076 0.00000
4.523326 0.00000
4.529576 0.00000
4.535826 0.00000
4.542076 0.00000
4.548326 0.00000
4.554576 0.00000
9.778300 0.00000
9.787675 0.00000
9.797050 0.00000
9.806424 0.00000
9.815799 0.00000
9.825173 0.00000
9.834548 0.00000
9.843923 0.00000
9.853297 0.00000
9.862672 0.00000
9.872046 0.00000
9.881421 0.00100
9.890796 0.00000
9.900170 0.00000
9.909545 0.00000
9.918920 0.00000
9.928294 0.00000
9.937669 0.00000
9.947043 0.00100
9.956418 0.00000
9.965793 0.00000
9.975167 0.00100
9.984542 0.00100
9.993917 0.00100
10.003291 0.00100
10.012666 0.00000
10.022040 0.00000
10.031415 0.00100
10.040790 0.00100
10.050164 0.00100
10.059539 0.00100
10.068913 0.00200
10.078288 0.00100
10.087663 0.00100
10.097037 0.00200
10.106412 0.00200
10.115787 0.00200
10.125161 0.00299
10.134536 0.00400
10.143910 0.00300
10.153285 0.00400
10.162660 0.00500
10.172034 0.00600
10.181409 0.00700
10.190784 0.00800
10.200158 0.00800
10.209533 0.01001
10.218907 0.01200
10.228282 0.01300
10.237657 0.01499
10.247031 0.01801
10.256406 0.02000
10.265780 0.02299
10.275155 0.02698
10.284530 0.03101
10.293904 0.03500
10.303279 0.04099
10.312654 0.04697
10.322028 0.05402
10.331403 0.06100
10.340777 0.06898
10.350152 0.07795
10.359527 0.08803
10.368901 0.10000
10.378276 0.11197
10.387650 0.12592
10.397025 0.14204
10.406400 0.15700
10.415774 0.17594
10.425149 0.19887
10.434524 0.22106
10.443898 0.24400
10.453273 0.26993
10.462647 0.29485
10.472022 0.32307
10.481397 0.35199
10.490771 0.38690
10.500146 0.41286
10.509521 0.44308
10.518895 0.48398
10.528270 0.51192
10.537644 0.53883
10.547019 0.56705
10.556394 0.59398
10.565768 0.62990
10.575143 0.65484
10.584517 0.68405
10.593892 0.70298
10.603267 0.72889
10.612641 0.75689
10.622016 0.76802
10.631391 0.78798
10.640765 0.80195
10.650140 0.81495
10.659514 0.82202
10.668889 0.84298
10.678264 0.84701
10.687638 0.84008
10.697013 0.83301
10.706388 0.85198
10.715762 0.86394
10.725137 0.87699
10.734511 0.86899
10.743886 0.86900
10.753261 0.87098
10.762635 0.87797
10.772010 0.87900
10.781384 0.88199
10.790759 0.88700
10.800134 0.88498
10.809508 0.89000
10.818883 0.88399
10.828258 0.89801
10.837632 0.88300
10.847007 0.90101
10.856381 0.89700
10.865756 0.90300
10.875131 0.89699
10.884505 0.90500
10.893880 0.89898
10.903255 0.92386
10.912629 0.94293
10.922004 0.94700
10.931378 0.95201
10.940753 0.94401
10.950128 0.95288
10.959502 0.96300
10.968877 0.95401
10.978251 0.95499
10.987626 0.95691
10.997001 0.96700
11.006375 0.95495
11.015750 0.99984
11.025125 0.99711
11.034499 0.99200
11.043874 0.99199
11.053248 0.99407
11.062623 0.97112
11.071998 0.97200
11.081372 0.97498
11.090747 0.97713
11.100121 0.94701
11.109496 0.97100
11.118871 0.94807
11.128245 0.94102
11.137620 0.93599
11.146995 0.93401
11.156369 0.89906
11.165744 0.90497
11.175118 0.89511
11.184493 0.88102
11.193868 0.84312
11.203242 0.82795
11.212617 0.84492
11.221992 0.82904
11.231366 0.78408
11.240741 0.77418
11.250115 0.72826
11.259490 0.72800
11.268865 0.71313
11.278239 0.67617
11.287614 0.65919
11.296988 0.62904
11.306363 0.60410
11.315738 0.56832
11.325112 0.52029
11.334487 0.50403
11.343862 0.46816
11.353236 0.43815
11.362611 0.41723
11.371985 0.39104
11.381360 0.36814
11.390735 0.33218
11.400109 0.31521
11.409484 0.28604
11.418859 0.26907
11.428233 0.25209
11.437608 0.24311
11.446982 0.22604
11.456357 0.20807
11.465732 0.19213
11.475106 0.17317
11.484481 0.16102
11.493855 0.15306
11.503230 0.13712
11.512605 0.12510
11.521979 0.11503
11.531354 0.10205
11.540729 0.09604
11.550103 0.08810
11.559478 0.07802
11.568852 0.07102
11.578227 0.06803
11.587602 0.06208
11.596976 0.05501
11.606351 0.05202
11.615726 0.04604
11.625100 0.04205
11.634475 0.03701
11.643849 0.03601
11.653224 0.03105
11.662599 0.02603
11.671973 0.02600
11.681348 0.02502
11.690722 0.02003
11.700097 0.01801
11.709472 0.01701
11.718846 0.01401
11.728221 0.01499
11.737596 0.01403
11.746970 0.01101
11.756345 0.00900
11.765719 0.01099
11.775094 0.00904
11.784469 0.00600
11.793843 0.00699
11.803218 0.00801
11.812593 0.00503
11.821967 0.00499
11.831342 0.00700
11.840716 0.00504
11.850091 0.00199
11.859466 0.00499
11.868840 0.00302
11.878215 0.00099
11.887589 0.00398
11.896964 0.00400
11.906339 0.00500
11.915713 0.00402
11.925088 0.00104
11.934463 -0.00001
11.943837 0.00398
11.953212 0.00303
11.962586 0.00100
11.971961 0.00299
11.981336 0.00302
11.990710 -0.00099
12.000085 0.00195
12.009459 0.00301
12.018834 0.00001
12.028209 0.00098
12.037583 0.00200
12.046958 0.00101
12.056333 0.00099
12.065707 0.00300
12.075082 0.00004
12.084456 -0.00101
12.093831 0.00198
12.103206 0.00302
12.112580 -0.00097
12.121955 -0.00002
12.131330 0.00299
12.140704 0.00104
12.150079 -0.00101
12.159453 0.00297
10.978300 0.00000
10.987675 0.00000
10.997049 0.00000
11.006424 0.00000
11.015799 0.00000
11.025173 0.00000
11.034548 0.00000
11.043922 0.00000
11.053297 0.00000
11.062672 0.00000
11.072046 0.00000
11.081421 0.00000
11.090796 0.00000
11.100170 0.00100
11.109545 0.00100
11.118919 0.00100
11.128294 0.00100
11.137669 0.00100
11.147043 0.00200
11.156418 0.00200
11.165792 0.00200
11.175167 0.00300
11.184542 0.00400
11.193916 0.00400
11.203291 0.00500
11.212666 0.00600
11.222040 0.00600
11.231415 0.00700
11.240789 0.00800
11.250164 0.00899
11.259539 0.01101
11.268913 0.01300
11.278288 0.01500
11.287663 0.01699
11.297037 0.02001
11.306412 0.02300
11.315786 0.02600
11.325161 0.02998
11.334536 0.03502
11.343910 0.03900
11.353285 0.04399
11.362659 0.05197
11.372034 0.05803
11.381409 0.06601
11.390783 0.07299
11.400158 0.08197
11.409533 0.08803
11.418907 0.10001
11.428282 0.10998
11.437656 0.12393
11.447031 0.13704
11.456406 0.15001
11.465780 0.16397
11.475155 0.17792
11.484529 0.20008
11.493904 0.22601
11.503279 0.24096
11.512653 0.26487
11.522028 0.28604
11.531403 0.29801
11.540777 0.32992
11.550152 0.35292
11.559526 0.36806
11.568901 0.39900
11.578276 0.42991
11.587650 0.46486
11.597025 0.48607
11.606400 0.51400
11.615774 0.53090
11.625149 0.57979
11.634523 0.60005
11.643898 0.62699
11.653273 0.65291
11.662647 0.68582
11.672022 0.72413
11.681396 0.77100
11.690771 0.73901
11.700146 0.77678
11.709520 0.79102
11.718895 0.81498
11.728270 0.86185
11.737644 0.88802
11.747019 0.87100
11.756393 0.88599
11.765768 0.88891
11.775143 0.92792
11.784517 0.91400
11.793892 0.93599
11.803267 0.93105
11.812641 0.92988
11.822016 0.96607
11.831390 0.99200
11.840765 0.97505
